# Temp     Magnetization
1   0.999   0.000160061
1.05   0.999   0.000163047
1.1   0.3222   0.000811804
1.15   -0.1822   0.000722351
1.2   -0.9964   0.00058586
1.25   0.9962   0.000266419
1.3   -0.9942   0.000632554
1.35   -0.9934   0.00082736
1.4   0.9922   0.00026368
1.45   0.9882   0.000495515
1.5   -0.982   0.00116665
1.55   -0.9876   0.000474202
1.6   0.9794   0.00184977
1.65   -0.974   0.000746748
1.7   -0.9702   0.000687975
1.75   0.9658   0.00079116
1.8   0.9584   0.0013658
1.85   -0.9472   0.00178187
1.9   -0.9398   0.00160757
1.95   0.924   0.00318152
2   0.9044   0.00219364
2.05   -0.8822   0.00246294
2.1   -0.8446   0.00351961
2.15   0.858   0.00418821
2.2   0.7756   0.0022624
2.25   0.7422   0.00309876
2.3   0.3994   0.00215526
2.35   0.1134   0.00297672
2.4   0.0668   0.00340219
2.45   0.1458   0.00407327
2.5   0.0208   0.00383563
2.55   0.0648   0.00328691
2.6   -0.0506   0.00502196
2.65   0.026   0.00392175
2.7   0.0632   0.00196628
2.75   -0.0186   0.00237196
2.8   -0.0088   0.00624537
2.85   -0.015   0.00469604
2.9   0.0228   0.00439554
2.95   0.0664   0.00397258
3   0.023   0.00499225
3.05   -0.008   0.00610096
3.1   -0.0552   0.00358261
3.15   0.0388   0.00596231
3.2   0.0268   0.00818247
3.25   0.0238   0.00448387
3.3   0.0122   0.00447441
3.35   -0.0104   0.00706056
3.4   0.0104   0.00387142
3.45   0.0144   0.00553246
3.5   0.0076   0.00485867
3.55   -0.0216   0.00324923
