# Temp     Magn. susceptibility
1   0.000115327   2.19429e-06
1.05   0.00034715   3.11427e-06
1.1   0.00102117   6.96982e-06
1.15   0.000471515   3.40911e-06
1.2   0.00111179   8.37816e-06
1.25   0.00109908   7.56649e-06
1.3   0.00140545   8.79632e-06
1.35   0.00150629   8.28497e-06
1.4   0.00146456   6.60584e-06
1.45   0.00322283   1.37554e-05
1.5   0.00369596   1.76356e-05
1.55   0.0038843   1.85359e-05
1.6   0.00578618   2.21155e-05
1.65   0.00605917   3.18248e-05
1.7   0.00669308   3.13356e-05
1.75   0.0109822   6.22667e-05
1.8   0.0109843   5.25511e-05
1.85   0.0111126   5.00881e-05
1.9   0.0117825   5.74786e-05
1.95   0.0188654   8.07864e-05
2   0.0208707   0.000101656
2.05   0.0225305   0.000108215
2.1   0.0323184   0.000142406
2.15   0.0251848   0.00013191
2.2   0.032356   0.000136145
2.25   0.0368814   0.000152452
2.3   0.0285722   0.000125291
2.35   0.0245466   0.000119946
2.4   0.0393574   0.000181388
2.45   0.0508655   0.000232886
2.5   0.0727787   0.000287946
2.55   0.0681899   0.000319871
2.6   0.0723815   0.000278311
2.65   0.0661688   0.000297438
2.7   0.07479   0.000294568
2.75   0.0642928   0.000317864
2.8   0.0861896   0.000370632
2.85   0.130004   0.000509016
2.9   0.0997025   0.00045693
2.95   0.0909291   0.000398265
3   0.127621   0.000622923
3.05   0.158636   0.00078098
3.1   0.12431   0.000652017
3.15   0.147443   0.000624256
3.2   0.153125   0.00067318
3.25   0.19262   0.000899886
3.3   0.193873   0.000762771
3.35   0.154021   0.000703823
3.4   0.246499   0.00127339
3.45   0.257997   0.00105256
3.5   0.182472   0.000921902
3.55   0.271989   0.00108589
3.6   0.241343   0.00118212
3.65   0.261663   0.00108565
3.7   0.254609   0.000916171
3.75   0.253237   0.00116974
3.8   0.209259   0.000992164
3.85   0.19754   0.000796232
3.9   0.364616   0.00148893
3.95   0.273153   0.00112208
4   0.397168   0.00173774
4.05   0.305845   0.00144349
4.1   0.333592   0.00142511
4.15   0.274915   0.00124799
4.2   0.346818   0.00146269
4.25   0.382084   0.00148231
4.3   0.342027   0.00145091
4.35   0.345028   0.00149782
4.4   0.336129   0.00129786
4.45   0.420444   0.00152249
4.5   0.336228   0.00152484
4.55   0.280347   0.00130742
4.6   0.247474   0.00105295
4.65   0.333678   0.00143538
4.7   0.240471   0.000994216
4.75   0.298078   0.00131023
4.8   0.306963   0.00150811
4.85   0.302921   0.00126015
4.9   0.230933   0.00101672
4.95   0.236494   0.00100254
5   0.363477   0.00152561
5.05   0.30247   0.00126463
5.1   0.28927   0.00130502
5.15   0.337973   0.00145578
5.2   0.307054   0.00124204
5.25   0.432805   0.00197286
5.3   0.519795   0.00197717
5.35   0.341368   0.00131191
5.4   0.377293   0.00152971
5.45   0.400404   0.00174406
5.5   0.335421   0.00132448
5.55   0.27743   0.00120316
5.6   0.302454   0.00111399
5.65   0.309589   0.00137687
5.7   0.459557   0.00188495
5.75   0.391055   0.00152898
5.8   0.330321   0.00142378
5.85   0.309314   0.00122113
5.9   0.246665   0.00105658
5.95   0.233924   0.00103468
6   0.291425   0.00119216
6.05   0.409837   0.00167502
6.1   0.292075   0.00109824
6.15   0.254731   0.00104099
6.2   0.268038   0.00102627
6.25   0.232108   0.00104982
6.3   0.252904   0.00111373
6.35   0.263325   0.00118337
6.4   0.304388   0.00118679
6.45   0.314021   0.00125959
6.5   0.350147   0.0013551
6.55   0.195769   0.000882674
6.6   0.290795   0.00122799
6.65   0.240162   0.00103803
6.7   0.194792   0.000935334
6.75   0.259806   0.00108916
6.8   0.307857   0.00127946
6.85   0.200981   0.000935869
6.9   0.263294   0.00130399
6.95   0.207604   0.00086593
7   0.23104   0.0010797
7.05   0.239184   0.00101796
7.1   0.223535   0.000893184
7.15   0.266459   0.00123393
7.2   0.334914   0.00143992
7.25   0.229058   0.00105894
7.3   0.267789   0.00108471
7.35   0.253808   0.00110656
7.4   0.179798   0.000722047
7.45   0.209797   0.000944775
7.5   0.177051   0.000803212
7.55   0.161855   0.000690394
7.6   0.236621   0.00105782
7.65   0.20889   0.000835018
7.7   0.231702   0.00102951
7.75   0.145839   0.000607292
7.8   0.225375   0.00109061
7.85   0.210542   0.000819966
7.9   0.1853   0.000840865
7.95   0.229534   0.000984496
8   0.177532   0.000769199
